%LabVIEW Measurement        
%Writer_Version        2
%Reader_Version        2
%Separator        Tab
%Decimal_Separator        .
%Multi_Headings        No
%X_Columns        No
%Time_Pref        Absolute
%Operator        mechlab
%Description        Data file
%Date        2023/02/10
%Time        13:44:10.2789998054504394531
%***End_of_Header***        
%        
%Channels        6                                                
%Samples        1        1        1        1        1        1        
%Date        2023/02/10        2023/02/10        2023/02/10        2023/02/10        2023/02/10        2023/02/10        
%Time        13:44:10.2789998054504394531        13:44:10.3850002288818359375        13:44:10.4939999580383300782        13:44:10.6030001640319824219        13:44:10.7109999656677246094        13:44:10.8189997673034667969        
%X_Dimension        Time        Time        Time        Time        Time        Time        
%X0        0.0000000000000000E+0        0.0000000000000000E+0        0.0000000000000000E+0        0.0000000000000000E+0        0.0000000000000000E+0        0.0000000000000000E+0        
%Delta_X        1.000000        1.000000        1.000000        1.000000        1.000000        1.000000        
%***End_of_Header***                                                        
%X_Value        Untitled        Untitled 1        Untitled 2        Untitled 3        Untitled 4        Untitled 5        Comment
        0.000000        116.970470        9.737914        13.720016        -6.290082E-8        4.656699E-6
        0.545000        124.048641        9.746654        13.723165        1.185316E-7        4.625631E-6
        1.088000        125.731236        9.745102        13.726685        3.194454E-7        4.510060E-6
        1.632000        125.098451        9.742790        13.722568        8.442589E-7        4.317441E-6
        2.176000        151.807435        9.746648        13.723046        1.037502E-5        1.421948E-6
        2.718000        180.139439        9.740433        13.722709        1.173640E-5        4.663149E-7
        3.262000        177.489150        9.749243        13.723198        1.221982E-5        2.376588E-7
        3.808000        185.601030        9.770310        13.720502        1.129803E-5        4.451886E-7
        4.355000        197.327672        9.757233        13.724517        1.159514E-5        3.234052E-7
        4.899000        194.778822        9.762958        13.723569        1.218694E-5        3.296184E-7
        5.445000        202.026057        9.792166        13.723243        1.354467E-5        2.525716E-7
        5.987000        198.015201        9.760321        13.724725        1.417666E-5        -2.842721E-7
        6.533000        201.125989        9.789155        13.726823        1.555875E-5        -5.352960E-7
        7.080000        210.944616        9.793825        13.725415        1.572557E-5        -9.379279E-7
        7.626000        208.859486        9.800610        13.725241        1.642575E-5        -1.372870E-6
        8.167000        210.226494        9.799003        13.725255        1.626380E-5        -1.673601E-6
        8.714000        217.924568        9.809202        13.727066        1.647446E-5        -1.848820E-6
        9.259000        214.628614        9.806719        13.727025        1.732442E-5        -1.970603E-6
        9.806000        225.785266        9.817584        13.725237        1.822187E-5        -2.434126E-6
        10.348000        227.385744        9.811491        13.727125        1.855674E-5        -2.376962E-6
        10.894000        231.615579        9.814612        13.727322        1.905113E-5        -2.871551E-6
        11.440000        238.231640        9.834001        13.725327        1.994737E-5        -3.542601E-6
        11.982000        233.567068        9.835411        13.725724        2.147317E-5        -3.629589E-6
        12.527000        238.217149        9.842409        13.726318        2.144638E-5        -3.500350E-6
        13.069000        245.934545        9.845514        13.728223        2.168870E-5        -3.162340E-6
        13.613000        252.318745        9.841321        13.727824        2.232435E-5        -3.767527E-6
        14.157000        250.727928        9.847732        13.728321        2.306351E-5        -4.144060E-6
        14.704000        252.487810        9.850395        13.727071        2.359809E-5        -4.446032E-6
        15.248000        262.060086        9.849658        13.728529        2.442614E-5        -4.542961E-6
        15.793000        262.781428        9.856269        13.728860        2.503987E-5        -5.129507E-6
        16.341000        265.262652        9.866980        13.727677        2.695049E-5        -5.693684E-6
        16.887000        274.218244        9.869350        13.726982        2.751064E-5        -6.147261E-6
        17.434000        277.718686        9.884073        13.728504        2.920817E-5        -6.484027E-6
        17.973000        280.536429        9.883304        13.730375        3.067432E-5        -6.341119E-6
        18.520000        281.422006        9.882199        13.729174        2.964655E-5        -6.281471E-6
        19.063000        288.645089        9.888813        13.729724        3.123936E-5        -6.707709E-6
        19.609000        288.959066        9.893937        13.730415        3.165704E-5        -6.743746E-6
        20.151000        296.475194        9.899424        13.730378        3.323767E-5        -6.976127E-6
        20.697000        301.139767        9.915909        13.730393        3.357012E-5        -7.739129E-6
        21.241000        302.695161        9.902171        13.732233        3.391353E-5        -7.694392E-6
        21.787000        310.085698        9.909401        13.732026        3.480979E-5        -7.756526E-6
        22.334000        319.997713        9.924703        13.731538        3.613227E-5        -8.197675E-6
        22.880000        321.063625        9.925570        13.732735        3.781521E-5        -8.059739E-6
        23.427000        322.424193        9.922291        13.732598        4.050281E-5        -9.005412E-6
        23.972000        331.246144        9.934622        13.732395        3.898548E-5        -8.940793E-6
        24.518000        337.704411        9.935105        13.732934        4.000474E-5        -9.738587E-6
        25.063000        343.608790        9.944347        13.733600        4.059780E-5        -9.169444E-6
        25.605000        338.805746        9.940608        13.732451        3.960532E-5        -8.515800E-6
        26.146000        347.123723        9.953541        13.731965        3.950303E-5        -8.955705E-6
        26.693000        356.335328        9.967820        13.733489        4.085718E-5        -9.932443E-6
        27.239000        365.108975        9.965585        13.733000        4.209565E-5        -1.017228E-5
        27.783000        363.477904        9.970325        13.733382        4.385411E-5        -1.078491E-5
        28.328000        373.058230        9.971855        13.733734        4.456895E-5        -1.144477E-5
        28.877000        377.077137        9.962658        13.733567        4.503779E-5        -1.215557E-5
        29.422000        385.519095        9.976753        13.733292        4.631281E-5        -1.208722E-5
        29.970000        394.708158        9.976576        13.735109        4.811269E-5        -1.273962E-5
        30.515000        396.419736        10.001852        13.734769        5.056288E-5        -1.383440E-5
        31.062000        406.586153        9.993141        13.733493        5.220933E-5        -1.432774E-5
        31.609000        425.358762        9.998580        13.734882        5.377664E-5        -1.473409E-5
        32.154000        427.612957        9.991872        13.734290        5.533055E-5        -1.510564E-5
        32.699000        429.601478        10.007771        13.737253        5.681262E-5        -1.602396E-5
        33.243000        442.423014        10.004286        13.736305        5.829835E-5        -1.677080E-5
        33.789000        444.967034        10.005520        13.738055        5.852608E-5        -1.697832E-5
        34.338000        460.590211        10.020468        13.737293        5.959045E-5        -1.710880E-5
        34.883000        466.254680        10.019734        13.737762        6.157793E-5        -1.808428E-5
        35.429000        473.083279        10.028912        13.738466        6.365675E-5        -1.900011E-5
        35.970000        488.822387        10.033968        13.738839        6.631892E-5        -1.924491E-5
        36.515000        492.846124        10.031027        13.740655        6.866325E-5        -2.006257E-5
        37.062000        498.360850        10.033552        13.738198        7.125603E-5        -2.104922E-5
        37.607000        508.528877        10.042347        13.740354        7.273815E-5        -2.207688E-5
        38.149000        528.884253        10.057154        13.739756        7.527006E-5        -2.230056E-5
        38.692000        541.039192        10.048121        13.739117        7.762905E-5        -2.340153E-5
        39.235000        553.701324        10.051940        13.740293        8.032418E-5        -2.459943E-5
        39.781000        562.346160        10.059414        13.742461        8.286588E-5        -2.559850E-5
        40.327000        578.906438        10.073825        13.741430        8.460379E-5        -2.557117E-5
        40.873000        587.295262        10.068051        13.743404        8.725755E-5        -2.684486E-5
        41.418000        604.047147        10.070250        13.746035        8.991985E-5        -2.763268E-5
        41.966000        612.357074        10.080913        13.742992        9.248230E-5        -2.865536E-5
        42.512000        630.401901        10.089347        13.744134        9.563667E-5        -2.928040E-5
        43.058000        641.344405        10.088278        13.743849        9.788006E-5        -3.027200E-5
        43.607000        660.943016        10.100016        13.744273        0.000102        -3.134687E-5
        44.152000        675.503502        10.100805        13.746539        0.000105        -3.214587E-5
        44.698000        691.603281        10.096802        13.746492        0.000108        -3.316108E-5
        45.245000        708.570925        10.100991        13.745264        0.000111        -3.413901E-5
        45.788000        717.634397        10.108990        13.746188        0.000113        -3.560404E-5
        46.334000        732.120817        10.115895        13.745695        0.000116        -3.694108E-5
        46.879000        747.095109        10.118954        13.746152        0.000119        -3.786557E-5
        47.429000        769.078336        10.130286        13.746327        0.000123        -3.843219E-5
        47.973000        780.447527        10.133062        13.747595        0.000126        -3.998792E-5
        48.519000        796.465189        10.144446        13.748474        0.000129        -4.060300E-5
        49.060000        815.263561        10.135162        13.747956        0.000132        -4.178346E-5
        49.608000        832.300441        10.147276        13.749438        0.000135        -4.349077E-5
        50.154000        843.618107        10.158805        13.749984        0.000137        -4.455690E-5
        50.698000        864.422712        10.153124        13.748632        0.000140        -4.521174E-5
        51.248000        880.651303        10.158412        13.748705        0.000143        -4.647669E-5
        51.792000        889.428170        10.157565        13.749401        0.000147        -4.723093E-5
        52.335000        909.314996        10.168334        13.748145        0.000151        -4.859278E-5
        52.876000        916.784431        10.188570        13.748134        0.000153        -4.976328E-5
        53.421000        942.293862        10.170801        13.749729        0.000155        -5.109780E-5
        53.967000        949.723043        10.179083        13.748240        0.000159        -5.293057E-5
        54.515000        970.128334        10.179151        13.750149        0.000161        -5.369847E-5
        55.060000        986.099302        10.199889        13.750544        0.000163        -5.490251E-5
        55.603000        1014.201057        10.197803        13.750137        0.000167        -5.590649E-5
        56.145000        1023.641302        10.197732        13.748730        0.000170        -5.714158E-5
        56.692000        1037.725187        10.206674        13.748937        0.000173        -5.859784E-5
        57.236000        1048.680573        10.201380        13.751350        0.000173        -5.883144E-5
        57.782000        1070.330501        10.213073        13.747765        0.000175        -5.883766E-5
        58.326000        1090.652065        10.209589        13.750227        0.000178        -6.041444E-5
        58.867000        1107.139888        10.214770        13.749611        0.000180        -6.129788E-5
        59.408000        1129.807424        10.225491        13.749021        0.000186        -6.291815E-5
        59.951000        1144.755954        10.232804        13.750389        0.000189        -6.414950E-5
        60.495000        1154.893389        10.240207        13.751736        0.000193        -6.508139E-5
        61.036000        1176.791279        10.240468        13.750757        0.000197        -6.657739E-5
        61.585000        1206.023352        10.236134        13.750713        0.000201        -6.796280E-5
        62.129000        1217.239580        10.251758        13.752052        0.000203        -6.868222E-5
        62.677000        1235.897871        10.261786        13.751079        0.000207        -6.937554E-5
        63.220000        1267.339055        10.258176        13.751489        0.000210        -7.103181E-5
        63.763000        1278.912734        10.264488        13.749450        0.000215        -7.276636E-5
        64.309000        1297.216794        10.268018        13.750191        0.000220        -7.489104E-5
        64.855000        1314.387316        10.282103        13.750150        0.000224        -7.654605E-5
        65.404000        1333.984318        10.281311        13.749859        0.000227        -7.690016E-5
        65.951000        1363.209951        10.274378        13.751575        0.000230        -7.827312E-5
        66.499000        1378.274411        10.296511        13.749860        0.000234        -7.945845E-5
        67.043000        1405.703129        10.285581        13.748855        0.000238        -8.104138E-5
        67.589000        1428.166179        10.296720        13.749811        0.000243        -8.285416E-5
        68.131000        1444.509090        10.285697        13.746794        0.000246        -8.430165E-5
        68.678000        1464.830654        10.300043        13.749706        0.000251        -8.603366E-5
        69.225000        1488.248516        10.311375        13.749633        0.000256        -8.725874E-5
        69.772000        1511.160795        10.317861        13.747537        0.000260        -8.858570E-5
        70.318000        1530.799660        10.316863        13.752619        0.000264        -9.041460E-5
        70.864000        1548.733389        10.317568        13.748390        0.000269        -9.261872E-5
        71.408000        1579.306709        10.322646        13.750107        0.000273        -9.361766E-5
        71.953000        1600.808506        10.328198        13.748204        0.000279        -9.584289E-5
        72.499000        1625.099063        10.337727        13.749905        0.000286        -9.777365E-5
        73.041000        1642.042557        10.349500        13.746616        0.000289        -9.943852E-5
        73.587000        1662.434968        10.350405        13.751629        0.000293        -0.000101
        74.127000        1690.324187        10.350808        13.749506        0.000297        -0.000102
        74.672000        1709.650686        10.339118        13.748933        0.000302        -0.000104
        75.216000        1730.234704        10.361412        13.750412        0.000306        -0.000106
        75.758000        1755.552531        10.352598        13.751324        0.000309        -0.000107
        76.302000        1778.914038        10.365821        13.749583        0.000314        -0.000108
        76.846000        1811.590201        10.373186        13.747649        0.000315        -0.000109
        77.395000        1835.199671        10.381507        13.750386        0.000318        -0.000110
        77.937000        1851.634360        10.371833        13.749788        0.000323        -0.000112
        78.485000        1876.758971        10.375730        13.751298        0.000328        -0.000113
        79.028000        1900.497252        10.391399        13.751770        0.000333        -0.000115
        79.573000        1928.764854        10.387693        13.750176        0.000339        -0.000117
        80.120000        1951.586966        10.410261        13.750394        0.000342        -0.000119
        80.664000        1981.574197        10.406805        13.751468        0.000348        -0.000121
        81.204000        2005.471882        10.416215        13.752299        0.000352        -0.000122
        81.750000        2030.103791        10.415619        13.751945        0.000360        -0.000124
        82.292000        2046.540091        10.431160        13.752613        0.000364        -0.000126
        82.835000        2072.827223        10.415806        13.754410        0.000368        -0.000128
        83.381000        2103.297496        10.423180        13.751761        0.000373        -0.000129
        83.927000        2137.118469        10.430020        13.752994        0.000378        -0.000131
        84.472000        2156.707422        10.442457        13.751574        0.000382        -0.000133
        85.015000        2177.359068        10.440850        13.754851        0.000386        -0.000135
        85.559000        2210.696999        10.446956        13.753130        0.000392        -0.000137
        86.107000        2236.093725        10.449439        13.754869        0.000399        -0.000138
        86.654000        2260.023614        10.455805        13.755869        0.000406        -0.000141
        87.195000        2291.530818        10.455699        13.753528        0.000410        -0.000144
        87.741000        2317.710071        10.471308        13.754011        0.000410        -0.000144
        88.286000        2354.727172        10.455728        13.756405        0.000414        -0.000146
        88.827000        2381.515058        10.462201        13.757769        0.000419        -0.000147
        89.375000        2402.590171        10.480537        13.758631        0.000425        -0.000149
        89.921000        2430.176687        10.470583        13.757173        0.000431        -0.000151
        90.466000        2462.532435        10.491814        13.758452        0.000437        -0.000153
        91.010000        2489.982089        10.488224        13.758549        0.000443        -0.000155
        91.555000        2513.105299        10.496075        13.757883        0.000447        -0.000156
        92.102000        2555.326372        10.508363        13.759260        0.000453        -0.000158
        92.649000        2567.289707        10.492185        13.759796        0.000458        -0.000161
        93.196000        2600.474678        10.515889        13.758455        0.000463        -0.000163
        93.741000        2633.318299        10.510795        13.761305        0.000469        -0.000165
